Fennally et al cross sections at Hinteregger wavelengths.
     WVLN         O Ion        O2 Ion       O2 Abs       N2 Ion       N2 Abs  
     0.7500       0.0000       0.0000       0.0000       0.0000       0.0000
     1.2500       0.0000       0.0000       0.0000       0.0000       0.0000
     1.7500       0.0000       0.0000       0.0000       0.0000       0.0000
     2.2500       0.0000       0.0000       0.0000       0.0000       0.0000
     2.7500       0.0000       0.0000       0.0000       0.0000       0.0000
     3.2500       0.0000       0.0001       0.0001       0.0000       0.0000
     3.7500       0.0000       0.0001       0.0001       0.0000       0.0000
     4.2500       0.0000       0.0001       0.0001       0.0000       0.0000
     4.7500       0.0000       0.0001       0.0001       0.0000       0.0000
     5.2500       0.0000       0.0001       0.0001       0.0001       0.0001
     5.7500       0.0001       0.0001       0.0001       0.0001       0.0001
     6.2500       0.0001       0.0001       0.0001       0.0001       0.0001
     6.7500       0.0001       0.0002       0.0002       0.0001       0.0001
     7.2500       0.0001       0.0002       0.0002       0.0001       0.0001
     7.7500       0.0001       0.0002       0.0002       0.0002       0.0002
     8.2500       0.0001       0.0002       0.0002       0.0002       0.0002
     8.7500       0.0001       0.0003       0.0003       0.0002       0.0002
     9.2500       0.0002       0.0003       0.0003       0.0003       0.0003
     9.7500       0.0002       0.0004       0.0004       0.0004       0.0004
    10.2500       0.0002       0.0005       0.0005       0.0005       0.0005
    10.7500       0.0003       0.0005       0.0005       0.0006       0.0006
    11.2500       0.0003       0.0006       0.0006       0.0007       0.0007
    11.7500       0.0004       0.0007       0.0007       0.0009       0.0009
    12.2500       0.0004       0.0008       0.0008       0.0011       0.0011
    12.7500       0.0005       0.0010       0.0010       0.0013       0.0013
    13.2500       0.0006       0.0012       0.0012       0.0016       0.0016
    13.7500       0.0007       0.0013       0.0013       0.0020       0.0020
    14.2500       0.0008       0.0016       0.0016       0.0025       0.0025
    14.7500       0.0009       0.0018       0.0018       0.0030       0.0030
    15.2500       0.0011       0.0021       0.0021       0.0037       0.0037
    15.7500       0.0013       0.0025       0.0025       0.0046       0.0046
    16.2500       0.0015       0.0029       0.0029       0.0057       0.0057
    16.7500       0.0017       0.0034       0.0034       0.0070       0.0070
    17.2500       0.0020       0.0040       0.0040       0.0087       0.0087
    17.7500       0.0023       0.0046       0.0046       0.0107       0.0107
    18.6200       0.0030       0.0061       0.0061       0.0154       0.0154
    18.9700       0.0034       0.0068       0.0068       0.0178       0.0178
    21.6000       0.0077       0.0152       0.0152       0.0537       0.0537
    21.8000       0.0081       0.0162       0.0162       0.0584       0.0584
    22.1000       0.0089       0.0178       0.0178       0.0663       0.0663
    28.4700       0.0640       0.1270       0.1270       0.9590       0.9590
    28.7900       0.0660       0.1310       0.1310       0.9700       0.9700
    29.5200       0.0700       0.1390       0.1390       0.9950       0.9950
    30.0200       0.0730       0.1450       0.1450       1.0120       1.0120
    30.4300       0.0760       0.1500       0.1500       0.9090       0.9090
    33.7400       0.0960       0.1900       0.1900       0.0960       0.0960
    40.9500       0.1400       0.2750       0.2750       0.1500       0.1500
    43.7600       0.1570       0.3090       0.3090       0.1710       0.1710
    44.0200       0.1580       0.3120       0.3120       0.1730       0.1730
    44.1600       0.1590       0.3140       0.3140       0.1740       0.1740
    45.6600       0.1820       0.3410       0.3410       0.1880       0.1880
    46.4000       0.1830       0.3560       0.3560       0.1960       0.1960
    46.6700       0.1830       0.3620       0.3620       0.1990       0.1990
    47.8700       0.1840       0.3880       0.3880       0.2110       0.2110
    49.2200       0.1930       0.4170       0.4170       0.2250       0.2250
    50.5200       0.2050       0.4450       0.4450       0.2390       0.2390
    50.6900       0.2070       0.4490       0.4490       0.2410       0.2410
    52.3000       0.2250       0.4830       0.4830       0.2580       0.2580
    52.9100       0.2310       0.4980       0.4980       0.2660       0.2660
    54.1500       0.2450       0.5300       0.5300       0.2830       0.2830
    54.4200       0.2490       0.5370       0.5370       0.2870       0.2870
    55.0600       0.2580       0.5530       0.5530       0.2960       0.2960
    55.3400       0.2620       0.5600       0.5600       0.3000       0.3000
    56.0800       0.2720       0.5780       0.5780       0.3100       0.3100
    56.9200       0.2840       0.6000       0.6000       0.3220       0.3220
    57.3600       0.2900       0.6110       0.6110       0.3280       0.3280
    57.5600       0.2930       0.6160       0.6160       0.3310       0.3310
    57.8800       0.2970       0.6240       0.6240       0.3350       0.3350
    58.9600       0.3120       0.6510       0.6510       0.3500       0.3500
    59.6200       0.3250       0.6680       0.6680       0.3600       0.3600
    60.3000       0.3380       0.6850       0.6850       0.3690       0.3690
    60.8500       0.3480       0.6990       0.6990       0.3770       0.3770
    61.0700       0.3530       0.7040       0.7040       0.3800       0.3800
    61.6300       0.3640       0.7190       0.7190       0.3880       0.3880
    61.9000       0.3690       0.7250       0.7250       0.3910       0.3910
    62.3000       0.3760       0.7350       0.7350       0.3970       0.3970
    62.3500       0.3770       0.7370       0.7370       0.3980       0.3980
    62.7700       0.3840       0.7470       0.7470       0.4040       0.4040
    63.1600       0.3910       0.7570       0.7570       0.4090       0.4090
    63.3000       0.3940       0.7610       0.7610       0.4110       0.4110
    63.6500       0.4000       0.7700       0.7700       0.4160       0.4160
    64.1100       0.4080       0.7810       0.7810       0.4220       0.4220
    64.6000       0.4170       0.7960       0.7960       0.4290       0.4290
    65.2100       0.4280       0.8180       0.8180       0.4370       0.4370
    65.7100       0.4390       0.8360       0.8360       0.4430       0.4430
    65.8500       0.4420       0.8410       0.8410       0.4450       0.4450
    66.2600       0.4511       0.8556       0.8556       0.4505       0.4505
    66.3000       0.4520       0.8570       0.8570       0.4510       0.4510
    66.3700       0.4536       0.8595       0.8595       0.4519       0.4519
    67.1400       0.4710       0.8870       0.8870       0.4620       0.4620
    67.3500       0.4750       0.8950       0.8950       0.4650       0.4650
    68.3500       0.4980       0.9260       0.9260       0.4840       0.4840
    69.6500       0.5250       0.9650       0.9650       0.5110       0.5110
    70.0000       0.5320       0.9750       0.9750       0.5180       0.5180
    70.5400       0.5430       0.9910       0.9910       0.5290       0.5290
    70.7500       0.5470       0.9970       0.9970       0.5340       0.5340
    71.0000       0.5520       1.0050       1.0050       0.5390       0.5390
    71.9400       0.5710       1.0330       1.0330       0.5590       0.5590
    72.3100       0.5790       1.0440       1.0440       0.5660       0.5660
    72.6300       0.5850       1.0560       1.0560       0.5720       0.5720
    72.8000       0.5890       1.0620       1.0620       0.5750       0.5750
    72.9500       0.5920       1.0670       1.0670       0.5780       0.5780
    73.4700       0.6041       1.0860       1.0860       0.5867       0.5867
    73.5500       0.6060       1.0890       1.0890       0.5880       0.5880
    74.2100       0.6210       1.1130       1.1130       0.6000       0.6000
    74.4400       0.6260       1.1210       1.1210       0.6040       0.6040
    74.8300       0.6350       1.1350       1.1350       0.6110       0.6110
    75.0300       0.6400       1.1430       1.1430       0.6150       0.6150
    75.2900       0.6460       1.1520       1.1520       0.6200       0.6200
    75.4600       0.6500       1.1580       1.1580       0.6230       0.6230
    75.7300       0.6560       1.1680       1.1680       0.6280       0.6280
    76.0100       0.6620       1.1780       1.1780       0.6330       0.6330
    76.4800       0.6730       1.1950       1.1950       0.6410       0.6410
    76.8300       0.6810       1.2080       1.2080       0.6470       0.6470
    76.9400       0.6840       1.2120       1.2120       0.6490       0.6490
    77.3000       0.6920       1.2250       1.2250       0.6560       0.6560
    77.7400       0.7030       1.2400       1.2400       0.6640       0.6640
    78.5600       0.7250       1.2700       1.2700       0.6780       0.6780
    78.7000       0.7290       1.2750       1.2750       0.6810       0.6810
    79.0800       0.7390       1.2890       1.2890       0.6880       0.6880
    79.4800       0.7500       1.3030       1.3030       0.6950       0.6950
    79.7600       0.7570       1.3130       1.3130       0.7000       0.7000
    80.0000       0.7640       1.3220       1.3220       0.7040       0.7040
    80.5500       0.7780       1.3420       1.3420       0.7140       0.7140
    82.4300       0.8290       1.4140       1.4140       0.7520       0.7520
    82.7400       0.8369       1.4289       1.4289       0.7612       0.7612
    82.8400       0.8390       1.4338       1.4338       0.7643       0.7643
    83.4200       0.8510       1.4620       1.4620       0.7830       0.7830
    83.6700       0.8570       1.4740       1.4740       0.7900       0.7900
    84.0000       0.8640       1.4900       1.4900       0.8010       0.8010
    86.7700       0.9230       1.6250       1.6250       0.8860       0.8860
    86.8600       0.9251       1.6293       1.6293       0.8886       0.8886
    86.9800       0.9280       1.6350       1.6350       0.8920       0.8920
    87.3000       0.9350       1.6510       1.6510       0.9020       0.9020
    87.6100       0.9410       1.6660       1.6660       0.9120       0.9120
    88.0900       0.9518       1.6895       1.6895       0.9267       0.9267
    88.1100       0.9520       1.6900       1.6900       0.9270       0.9270
    88.1400       0.9530       1.6920       1.6920       0.9280       0.9280
    88.4200       0.9590       1.7050       1.7050       0.9370       0.9370
    88.6400       0.9640       1.7160       1.7160       0.9430       0.9430
    88.9000       0.9710       1.7280       1.7280       0.9510       0.9510
    89.1400       0.9770       1.7400       1.7400       0.9590       0.9590
    89.7000       0.9920       1.7670       1.7670       0.9760       0.9760
    90.1400       1.0040       1.7890       1.7890       0.9900       0.9900
    90.4500       1.0120       1.8040       1.8040       0.9990       0.9990
    90.7100       1.0190       1.8160       1.8160       1.0070       1.0070
    91.0000       1.0260       1.8310       1.8310       1.0160       1.0160
    91.4800       1.0390       1.8540       1.8540       1.0310       1.0310
    91.6900       1.0450       1.8640       1.8640       1.0370       1.0370
    91.8100       1.0480       1.8700       1.8700       1.0410       1.0410
    92.0900       1.0550       1.8840       1.8840       1.0500       1.0500
    92.8100       1.0740       1.9190       1.9190       1.0720       1.0720
    93.6100       1.0960       1.9570       1.9570       1.0970       1.0970
    94.0700       1.1080       1.9800       1.9800       1.1110       1.1110
    94.2500       1.1130       1.9890       1.9890       1.1160       1.1160
    94.3900       1.1160       1.9950       1.9950       1.1210       1.1210
    94.9000       1.1300       2.0200       2.0200       1.1360       1.1360
    95.3700       1.1420       2.0430       2.0430       1.1510       1.1510
    95.5100       1.1460       2.0500       2.0500       1.1550       1.1550
    95.8100       1.1530       2.0640       2.0640       1.1640       1.1640
    96.0500       1.1590       2.0760       2.0760       1.1720       1.1720
    96.4900       1.1700       2.0970       2.0970       1.1850       1.1850
    96.8300       1.1780       2.1140       2.1140       1.1960       1.1960
    97.1200       1.1850       2.1280       2.1280       1.2050       1.2050
    97.5100       1.1940       2.1470       2.1470       1.2170       1.2170
    97.8700       1.2030       2.1640       2.1640       1.2280       1.2280
    98.1200       1.2090       2.1770       2.1770       1.2350       1.2350
    98.2600       1.2127       2.1834       2.1834       1.2399       1.2399
    98.5000       1.2180       2.1950       2.1950       1.2470       1.2470
    99.7100       1.2480       2.2540       2.2540       1.2840       1.2840
    99.9900       1.2540       2.2670       2.2670       1.2930       1.2930
   100.5400       1.2680       2.2940       2.2940       1.3100       1.3100
   103.0100       1.3270       2.4140       2.4140       1.3860       1.3860
   103.1500       1.3310       2.4210       2.4210       1.3900       1.3900
   103.5800       1.3420       2.4420       2.4420       1.4040       1.4040
   103.9400       1.3510       2.4590       2.4590       1.4150       1.4150
   105.2300       1.3840       2.5220       2.5220       1.4540       1.4540
   106.2500       1.4100       2.5720       2.5720       1.4860       1.4860
   108.0500       1.4570       2.6590       2.6590       1.5410       1.5410
   109.9800       1.5060       2.7530       2.7530       1.6010       1.6010
   110.5600       1.5210       2.7810       2.7810       1.6190       1.6190
   110.6200       1.5230       2.7840       2.7840       1.6200       1.6200
   110.7600       1.5260       2.7910       2.7910       1.6250       1.6250
   111.1600       1.5370       2.8100       2.8100       1.6370       1.6370
   111.2500       1.5390       2.8150       2.8150       1.6400       1.6400
   113.8000       1.6030       2.9390       2.9390       1.7180       1.7180
   114.0900       1.6110       2.9530       2.9530       1.7270       1.7270
   114.2400       1.6140       2.9600       2.9600       1.7320       1.7320
   115.3900       1.6430       3.0160       3.0160       1.7670       1.7670
   115.8200       1.6540       3.0370       3.0370       1.7810       1.7810
   116.7500       1.6770       3.0820       3.0820       1.8180       1.8180
   117.2000       1.6880       3.1040       3.1040       1.8370       1.8370
   120.4000       1.7670       3.2680       3.2680       1.9660       1.9660
   121.1500       1.7860       3.3220       3.3220       1.9960       1.9960
   121.7900       1.8010       3.3670       3.3670       2.0220       2.0220
   122.7000       1.8240       3.4320       3.4320       2.0580       2.0580
   123.5000       1.8430       3.4890       3.4890       2.0900       2.0900
   127.6500       1.9690       3.7830       3.7830       2.2670       2.2670
   129.8700       2.0380       3.9410       3.9410       2.3640       2.3640
   130.3000       2.0520       3.9710       3.9710       2.3810       2.3810
   131.0200       2.0740       4.0210       4.0210       2.4090       2.4090
   131.2100       2.0800       4.0350       4.0350       2.4160       2.4160
   136.2100       2.2330       4.3850       4.3850       2.6110       2.6110
   136.2800       2.2350       4.3900       4.3900       2.6140       2.6140
   136.3400       2.2370       4.3940       4.3940       2.6160       2.6160
   136.4500       2.2400       4.4010       4.4010       2.6210       2.6210
   136.4800       2.2410       4.4040       4.4040       2.6220       2.6220
   141.2000       2.2600       4.7300       4.7300       2.8200       2.8200
   144.2700       2.2420       4.9360       4.9360       2.9490       2.9490
   145.0400       2.2370       4.9880       4.9880       2.9820       2.9820
   148.4000       2.2170       5.2130       5.2130       3.1360       3.1360
   150.1000       2.2060       5.3270       5.3270       3.2150       3.2150
   152.1500       2.1940       5.4730       5.4730       3.3170       3.3170
   154.1800       2.1820       5.6170       5.6170       3.4190       3.4190
   157.7300       2.3630       5.8690       5.8690       3.5960       3.5960
   158.3700       2.4070       5.9140       5.9140       3.6280       3.6280
   159.9800       2.5160       6.0290       6.0290       3.7090       3.7090
   160.3700       2.5420       6.0550       6.0550       3.7290       3.7290
   162.0000       2.6491       6.1630       6.1630       3.8127       3.8127
   164.1500       2.7970       6.3080       6.3080       3.9260       3.9260
   167.5000       3.0210       6.5320       6.5320       4.1050       4.1050
   168.1700       3.0660       6.5770       6.5770       4.1410       4.1410
   168.5500       3.0910       6.6030       6.6030       4.1620       4.1620
   168.9200       3.1160       6.6280       6.6280       4.1820       4.1820
   169.7000       3.1680       6.6800       6.6800       4.2240       4.2240
   171.0800       3.2590       6.7680       6.7680       4.2980       4.2980
   172.1700       3.3310       6.8370       6.8370       4.3570       4.3570
   173.0800       3.3910       6.8940       6.8940       4.4060       4.4060
   174.5800       3.4900       6.9890       6.9890       4.4870       4.4870
   175.2600       3.5350       7.0310       7.0310       4.5260       4.5260
   177.2400       3.6600       7.1560       7.1560       4.6440       4.6440
   178.0500       3.6870       7.2070       7.2070       4.6930       4.6930
   179.2700       3.7280       7.2840       7.2840       4.7660       4.7660
   179.7500       3.7450       7.3140       7.3140       4.7950       4.7950
   180.4100       3.7670       7.3640       7.3640       4.8390       4.8390
   181.1400       3.7910       7.4230       7.4230       4.8900       4.8900
   182.1700       3.8260       7.5080       7.5080       4.9620       4.9620
   183.4500       3.8690       7.6130       7.6130       5.0510       5.0510
   184.5300       3.9050       7.7010       7.7010       5.1270       5.1270
   184.8000       3.9140       7.7240       7.7240       5.1460       5.1460
   185.2100       3.9270       7.7570       7.7570       5.1740       5.1740
   186.6000       3.9730       7.8710       7.8710       5.2690       5.2690
   186.8700       3.9820       7.8930       7.8930       5.2870       5.2870
   187.9500       4.0180       7.9820       7.9820       5.3610       5.3610
   188.2300       4.0280       8.0050       8.0050       5.3800       5.3800
   188.3100       4.0300       8.0110       8.0110       5.3850       5.3850
   190.0200       4.0870       8.1510       8.1510       5.5010       5.5010
   191.0400       4.1200       8.2240       8.2240       5.5690       5.5690
   191.3400       4.1300       8.2450       8.2450       5.5880       5.5880
   192.4000       4.1650       8.3200       8.3200       5.6580       5.6580
   192.8200       4.1790       8.3500       8.3500       5.6860       5.6860
   193.5200       4.2020       8.4000       8.4000       5.7320       5.7320
   195.1300       4.2550       8.5140       8.5140       5.8400       5.8400
   196.5200       4.3000       8.6130       8.6130       5.9420       5.9420
   196.6500       4.3050       8.6220       8.6220       5.9520       5.9520
   197.4400       4.3300       8.6780       8.6780       6.0110       6.0110
   198.5800       4.3680       8.7590       8.7590       6.0950       6.0950
