    wavelength    O+(4S)      O+(2D)      O+(2P)      O+(4Pe)     O+(2Pe)     O++         O+(total)
      23.70       0.011       0.012       0.008       0.004       0.002       0.000       0.035
      28.47       0.019       0.021       0.014       0.007       0.004       0.000       0.064
      28.79       0.020       0.022       0.014       0.007       0.005       0.000       0.066
      29.52       0.021       0.023       0.015       0.008       0.005       0.000       0.070
      30.00       0.022       0.024       0.016       0.008       0.005       0.000       0.073
      30.02       0.022       0.024       0.016       0.008       0.005       0.000       0.073
      30.27       0.022       0.025       0.016       0.008       0.005       0.000       0.075
      30.43       0.023       0.025       0.017       0.008       0.005       0.000       0.076
      31.00       0.024       0.026       0.017       0.009       0.006       0.000       0.079
      31.62       0.025       0.027       0.018       0.009       0.006       0.000       0.083
      33.74       0.029       0.032       0.021       0.011       0.007       0.000       0.096
      35.40       0.032       0.035       0.023       0.012       0.007       0.000       0.106
      40.95       0.042       0.046       0.031       0.015       0.010       0.000       0.140
      41.30       0.043       0.046       0.031       0.016       0.010       0.000       0.142
      43.76       0.049       0.049       0.030       0.019       0.013       0.000       0.157
      44.02       0.049       0.049       0.030       0.019       0.013       0.000       0.158
      44.16       0.049       0.049       0.030       0.019       0.013       0.000       0.159
      44.20       0.049       0.049       0.030       0.019       0.013       0.000       0.159
      44.30       0.050       0.050       0.030       0.019       0.013       0.010       0.171
      44.70       0.051       0.051       0.031       0.020       0.013       0.011       0.175
      45.30       0.053       0.053       0.032       0.020       0.014       0.012       0.182
      45.66       0.053       0.053       0.032       0.020       0.014       0.012       0.182
      45.90       0.053       0.053       0.032       0.020       0.014       0.012       0.183
      46.40       0.053       0.053       0.032       0.020       0.014       0.012       0.183
      46.67       0.053       0.053       0.039       0.020       0.014       0.012       0.183
      47.70       0.050       0.054       0.036       0.019       0.012       0.013       0.183
      47.87       0.050       0.055       0.036       0.019       0.012       0.013       0.184
      49.22       0.055       0.055       0.037       0.018       0.012       0.014       0.193
      49.60       0.055       0.056       0.037       0.018       0.012       0.015       0.195
      50.36       0.054       0.060       0.036       0.019       0.011       0.016       0.203
      50.52       0.055       0.060       0.036       0.019       0.011       0.016       0.205
      50.69       0.055       0.061       0.036       0.019       0.011       0.016       0.207
      51.70       0.059       0.065       0.041       0.019       0.016       0.018       0.218
      52.30       0.062       0.068       0.043       0.018       0.018       0.018       0.225
      52.34       0.062       0.068       0.043       0.019       0.019       0.019       0.225
      52.91       0.061       0.068       0.044       0.019       0.019       0.019       0.231
      53.90       0.064       0.074       0.044       0.020       0.020       0.021       0.241
      54.15       0.065       0.076       0.045       0.020       0.020       0.021       0.245
      54.42       0.066       0.077       0.045       0.020       0.020       0.022       0.249
      54.70       0.064       0.076       0.051       0.018       0.018       0.022       0.253
      55.06       0.073       0.077       0.051       0.019       0.019       0.023       0.258
      55.34       0.071       0.076       0.052       0.026       0.019       0.024       0.262
      56.08       0.074       0.079       0.054       0.027       0.020       0.025       0.272
      56.40       0.074       0.082       0.054       0.027       0.020       0.026       0.277
      56.92       0.074       0.087       0.054       0.028       0.020       0.027       0.284
      57.36       0.073       0.086       0.055       0.026       0.021       0.028       0.290
      57.56       0.074       0.087       0.055       0.026       0.021       0.028       0.293
      57.88       0.080       0.085       0.053       0.027       0.019       0.029       0.297
      58.96       0.081       0.095       0.061       0.028       0.020       0.032       0.312
      59.00       0.081       0.095       0.062       0.028       0.020       0.032       0.313
      59.62       0.084       0.099       0.064       0.029       0.020       0.033       0.325
      60.30       0.087       0.100       0.063       0.030       0.021       0.035       0.338
      60.85       0.093       0.099       0.062       0.028       0.022       0.036       0.348
      61.07       0.094       0.107       0.063       0.028       0.022       0.037       0.353
      61.63       0.091       0.107       0.071       0.029       0.029       0.038       0.364
      61.90       0.099       0.105       0.069       0.030       0.030       0.039       0.369
      62.00       0.098       0.106       0.069       0.031       0.029       0.039       0.371
      62.30       0.097       0.110       0.070       0.033       0.027       0.040       0.376
      62.35       0.097       0.111       0.070       0.034       0.027       0.040       0.377
      62.77       0.099       0.113       0.068       0.034       0.027       0.041       0.384
      62.92       0.100       0.113       0.069       0.034       0.028       0.042       0.387
      63.16       0.104       0.111       0.070       0.035       0.028       0.042       0.391
      63.30       0.105       0.119       0.070       0.035       0.028       0.043       0.394
      63.65       0.103       0.117       0.078       0.036       0.028       0.044       0.400
      63.72       0.103       0.117       0.075       0.036       0.028       0.044       0.401
      64.11       0.109       0.116       0.076       0.033       0.029       0.045       0.408
      64.38       0.110       0.119       0.075       0.033       0.027       0.046       0.413
      64.60       0.111       0.122       0.074       0.033       0.026       0.046       0.417
      65.21       0.110       0.121       0.080       0.034       0.027       0.048       0.428
      65.30       0.111       0.122       0.080       0.034       0.027       0.048       0.430
      65.71       0.116       0.128       0.081       0.035       0.027       0.049       0.439
      65.85       0.117       0.129       0.082       0.035       0.027       0.050       0.442
      66.30       0.116       0.128       0.080       0.040       0.032       0.051       0.452
      67.14       0.125       0.137       0.087       0.042       0.033       0.053       0.471
      67.35       0.122       0.134       0.088       0.042       0.034       0.054       0.475
      67.60       0.124       0.137       0.088       0.041       0.034       0.054       0.481
      68.35       0.132       0.145       0.088       0.040       0.035       0.056       0.498
      68.90       0.133       0.147       0.092       0.041       0.034       0.058       0.510
      69.65       0.134       0.148       0.097       0.042       0.032       0.060       0.525
      70.00       0.136       0.150       0.094       0.047       0.033       0.061       0.532
      70.54       0.144       0.158       0.101       0.048       0.034       0.062       0.543
      70.75       0.145       0.154       0.101       0.048       0.034       0.063       0.547
      71.00       0.146       0.156       0.102       0.049       0.034       0.064       0.552
      71.94       0.151       0.161       0.111       0.045       0.040       0.066       0.571
      72.19       0.149       0.162       0.108       0.046       0.041       0.067       0.576
      72.31       0.148       0.163       0.107       0.046       0.041       0.067       0.579
      72.63       0.149       0.165       0.108       0.046       0.041       0.068       0.585
      72.80       0.155       0.161       0.109       0.047       0.041       0.069       0.589
      72.90       0.156       0.165       0.109       0.047       0.042       0.069       0.591
      72.95       0.156       0.167       0.109       0.047       0.042       0.069       0.592
      73.55       0.154       0.170       0.112       0.053       0.043       0.071       0.606
      74.21       0.164       0.175       0.115       0.055       0.038       0.073       0.621
      74.44       0.165       0.176       0.116       0.055       0.039       0.074       0.626
      74.83       0.162       0.178       0.117       0.056       0.039       0.075       0.635
      75.03       0.169       0.180       0.118       0.056       0.039       0.076       0.640
      75.29       0.170       0.181       0.119       0.057       0.040       0.077       0.646
      75.46       0.171       0.182       0.120       0.057       0.040       0.077       0.650
      75.73       0.167       0.178       0.121       0.052       0.046       0.078       0.656
      76.01       0.174       0.186       0.122       0.052       0.046       0.079       0.662
      76.48       0.171       0.183       0.124       0.059       0.047       0.081       0.673
      76.83       0.179       0.191       0.125       0.060       0.048       0.082       0.681
      76.94       0.180       0.192       0.126       0.060       0.048       0.083       0.684
      77.30       0.182       0.194       0.121       0.061       0.048       0.084       0.692
      77.50       0.180       0.195       0.125       0.058       0.046       0.085       0.697
      77.74       0.179       0.197       0.129       0.055       0.043       0.085       0.703
      78.56       0.184       0.197       0.133       0.057       0.051       0.088       0.725
      78.70       0.191       0.204       0.134       0.064       0.051       0.089       0.729
      79.08       0.194       0.207       0.136       0.065       0.052       0.090       0.739
      79.48       0.197       0.210       0.138       0.066       0.052       0.092       0.750
      79.76       0.199       0.212       0.139       0.066       0.053       0.093       0.757
      80.00       0.200       0.214       0.140       0.067       0.053       0.094       0.764
      80.21       0.202       0.215       0.141       0.061       0.047       0.094       0.769
      80.55       0.204       0.211       0.143       0.061       0.048       0.096       0.778
      80.94       0.207       0.221       0.145       0.069       0.048       0.097       0.789
      81.16       0.208       0.222       0.146       0.069       0.056       0.098       0.795
      81.58       0.211       0.225       0.148       0.070       0.056       0.099       0.806
      81.94       0.214       0.228       0.150       0.071       0.057       0.101       0.816
      82.10       0.215       0.229       0.150       0.069       0.057       0.101       0.820
      82.43       0.217       0.232       0.152       0.065       0.058       0.103       0.829
      82.67       0.219       0.233       0.153       0.066       0.058       0.104       0.835
      82.70       0.219       0.233       0.153       0.066       0.058       0.104       0.836
      83.25       0.222       0.229       0.155       0.074       0.052       0.105       0.848
      83.42       0.223       0.238       0.156       0.074       0.052       0.106       0.851
      83.67       0.224       0.239       0.157       0.075       0.052       0.106       0.857
      84.00       0.226       0.241       0.158       0.075       0.053       0.107       0.864
      84.26       0.228       0.243       0.159       0.076       0.061       0.108       0.869
      84.50       0.229       0.244       0.160       0.076       0.061       0.109       0.875
      84.72       0.230       0.246       0.161       0.069       0.061       0.109       0.879
      84.86       0.231       0.246       0.162       0.069       0.062       0.110       0.882
      85.16       0.233       0.248       0.163       0.078       0.062       0.111       0.889
      85.50       0.235       0.250       0.164       0.078       0.063       0.112       0.896
      85.69       0.236       0.251       0.165       0.079       0.063       0.112       0.900
      85.87       0.237       0.253       0.166       0.079       0.063       0.113       0.904
      86.23       0.239       0.255       0.167       0.080       0.056       0.114       0.912
      86.40       0.240       0.256       0.168       0.080       0.056       0.114       0.915
      86.77       0.242       0.258       0.169       0.073       0.056       0.115       0.923
      86.98       0.243       0.259       0.170       0.073       0.065       0.116       0.928
      87.30       0.245       0.261       0.171       0.073       0.065       0.117       0.935
      87.61       0.246       0.263       0.173       0.082       0.066       0.118       0.941
      88.10       0.249       0.266       0.174       0.083       0.066       0.119       0.952
      88.11       0.249       0.266       0.174       0.083       0.066       0.119       0.952
      88.14       0.249       0.266       0.175       0.083       0.067       0.119       0.953
      88.42       0.251       0.268       0.176       0.084       0.067       0.120       0.959
      88.60       0.245       0.269       0.176       0.084       0.067       0.121       0.963
      88.64       0.244       0.269       0.177       0.084       0.067       0.121       0.964
      88.90       0.254       0.271       0.178       0.085       0.059       0.122       0.971
      89.14       0.256       0.273       0.179       0.077       0.060       0.122       0.977
      89.70       0.260       0.277       0.182       0.078       0.069       0.124       0.992
      90.14       0.263       0.280       0.184       0.088       0.070       0.125       1.004
      90.45       0.265       0.283       0.186       0.088       0.071       0.126       1.012
      90.71       0.258       0.285       0.187       0.089       0.071       0.127       1.019
      91.00       0.269       0.287       0.188       0.090       0.072       0.128       1.026
      91.48       0.272       0.290       0.191       0.082       0.064       0.130       1.039
      91.69       0.274       0.292       0.192       0.091       0.064       0.130       1.045
      91.81       0.275       0.293       0.192       0.092       0.064       0.131       1.048
      92.09       0.277       0.295       0.194       0.092       0.074       0.131       1.055
      92.55       0.280       0.299       0.196       0.093       0.075       0.133       1.068
      92.81       0.282       0.300       0.197       0.094       0.075       0.134       1.074
      93.61       0.287       0.307       0.201       0.086       0.077       0.136       1.096
      94.07       0.291       0.310       0.203       0.097       0.077       0.137       1.108
      94.25       0.292       0.311       0.204       0.097       0.068       0.138       1.113
      94.39       0.293       0.312       0.205       0.098       0.068       0.138       1.116
      94.81       0.296       0.316       0.207       0.099       0.079       0.140       1.127
      94.90       0.296       0.316       0.208       0.099       0.079       0.140       1.130
      95.37       0.300       0.320       0.210       0.090       0.080       0.141       1.142
      95.40       0.300       0.318       0.210       0.090       0.080       0.141       1.143
      95.51       0.301       0.311       0.210       0.090       0.080       0.142       1.146
      95.81       0.303       0.323       0.212       0.091       0.081       0.143       1.153
      96.05       0.304       0.324       0.213       0.101       0.081       0.143       1.159
      96.49       0.307       0.328       0.215       0.102       0.082       0.145       1.170
      96.83       0.309       0.330       0.216       0.103       0.072       0.145       1.178
      97.12       0.311       0.332       0.218       0.104       0.073       0.146       1.185
      97.51       0.314       0.335       0.220       0.094       0.084       0.147       1.194
      97.87       0.316       0.337       0.221       0.105       0.084       0.148       1.203
      98.12       0.318       0.339       0.222       0.106       0.085       0.149       1.209
      98.23       0.318       0.339       0.223       0.106       0.085       0.149       1.212
      98.50       0.320       0.341       0.224       0.107       0.085       0.150       1.218
      98.88       0.322       0.344       0.226       0.107       0.086       0.151       1.227
      99.44       0.326       0.348       0.228       0.098       0.076       0.153       1.241
      99.71       0.328       0.350       0.229       0.098       0.076       0.153       1.248
      99.99       0.330       0.352       0.231       0.110       0.088       0.154       1.254
     100.54       0.333       0.355       0.233       0.111       0.089       0.156       1.268
     100.96       0.336       0.358       0.235       0.112       0.090       0.157       1.278
     101.57       0.340       0.362       0.238       0.102       0.091       0.159       1.293
     102.15       0.344       0.366       0.241       0.115       0.080       0.160       1.307
     103.01       0.349       0.372       0.244       0.116       0.093       0.163       1.327
     103.15       0.350       0.373       0.245       0.117       0.093       0.163       1.331
     103.17       0.350       0.374       0.245       0.117       0.093       0.163       1.331
     103.30       0.351       0.374       0.246       0.113       0.094       0.163       1.334
     103.58       0.353       0.376       0.247       0.106       0.094       0.164       1.342
     103.94       0.355       0.379       0.249       0.118       0.095       0.165       1.351
     104.23       0.358       0.381       0.250       0.119       0.095       0.166       1.358
     104.76       0.361       0.385       0.253       0.120       0.084       0.167       1.372
     105.23       0.365       0.389       0.255       0.122       0.097       0.168       1.384
     106.25       0.372       0.396       0.260       0.124       0.099       0.171       1.410
     106.57       0.374       0.399       0.262       0.125       0.100       0.171       1.419
     106.93       0.376       0.402       0.264       0.125       0.088       0.172       1.428
     107.80       0.383       0.408       0.268       0.128       0.099       0.174       1.450
     108.05       0.384       0.410       0.269       0.128       0.102       0.175       1.457
     108.46       0.387       0.413       0.271       0.129       0.103       0.176       1.467
     109.50       0.395       0.421       0.276       0.132       0.105       0.178       1.494
     109.98       0.398       0.424       0.279       0.133       0.106       0.179       1.506
     110.56       0.402       0.429       0.281       0.121       0.107       0.181       1.521
     110.62       0.402       0.429       0.282       0.121       0.107       0.181       1.523
     110.76       0.403       0.430       0.282       0.121       0.108       0.181       1.526
     111.16       0.406       0.433       0.284       0.135       0.095       0.182       1.537
     111.25       0.407       0.434       0.285       0.136       0.095       0.182       1.539
